 
 
 
 
 
 
 
                      Mon Jun 01 21:39:41 1992
 
 
 
            25 35.78  
            122 33.24 
# nquan = 6
# nvalues = 725                         
# units = metric                                                                
# name 0 = pr: pressure [db]                                                    
# name 1 = t068: temperature, IPTS-68 [deg C]                                   
# name 2 = c0S/m: conductivity [S/m]                                            
# name 3 = sal00: salinity, PSS-78 [PSU]
# name 4 = sigma-é00: density, sigma-theta [kg/m^3]
# name 5 = flag:  0.000e+00                                                     
# span 0 = 1.000, 725.000                         
# span 1 = 5.7148, 24.6132                        
# span 2 = 3.389532, 5.182437                     
# span 3 = 34.3182, 34.9643                       
# span 4 = 22.9874, 27.1231                       
# span 5 = 0.000e+00, 0.000e+00                   
# interval = decibars: 1                                                        
# start_time = Jun 01 1992 21:39:41                                             
# bad_flag = -9.990e-29                                                         
# sensor 0 = Frequency  0  temperature, 851                                     
# sensor 1 = Frequency  1  conductivity, 495, cpcor = -9.5700e-08               
# sensor 2 = Frequency  2  pressure, 31636                                      
# sensor 3 = Extrnl Volt  0  oxygen, current, 121                               
# sensor 4 = Extrnl Volt  1  oxygen, temperature, 121                           
# datcnv_date = Jan 05 2001 09:35:02, 4.244                                     
# datcnv_in = 318C7D.DAT SEASOFT.CON                                            
# datcnv_skipover = 0                                                           
# alignctd_date = Jan 05 2001 09:35:26, 4.244                                   
# alignctd_in = 318C7D.CNV                                                      
# alignctd_cond_advSecs = 0.073, 0.000                                          
# alignctd_temp_advSecs = 0.000, 0.000                                          
# alignctd_oxygen_current_advSecs = 0.000, 0.000                                
# alignctd_oxygen_temp_advSecs = 0.000, 0.000                                   
# alignctd_wetstar_advSecs = 0.000                                              
# celltm_date = Jan 05 2001 09:35:49, 4.244                                     
# celltm_in = 318C7D.CNV                                                        
# celltm_alpha = 0.0300, 0.0000                                                 
# celltm_tau = 7.0000, 0.0000                                                   
# celltm_temp_sensor_use_for_cond = primary,                                    
# filter_date = Jan 05 2001 09:36:28, 4.244                                     
# filter_in = 318C7D.CNV                                                        
# filter_low_pass_tc_A = 0.030                                                  
# filter_low_pass_tc_B = 0.150                                                  
# filter_low_pass_A_vars = c0S/m                                                
# filter_low_pass_B_vars = pr                                                   
# binavg_date = Jan 05 2001 09:37:18, 4.244                                     
# binavg_in = 318C7D.CNV                                                        
# binavg_bintype = Pressure Bins                                                
# binavg_binsize = 1.00                                                         
# binavg_excl_bad_scans = yes                                                   
# binavg_downcast_only = no                                                     
# binavg_skipover = 0                                                           
# binavg_surface_bin = no, min = 0.000, max = 0.000, value = 0.000              
# derive_date = Jan 05 2001 09:37:24, 4.244
# derive_in = 318C7D.CNV SEASOFT.CON
# file_type = ascii            
*END*                                                                           
      1.000    24.6132   5.182437    34.3749    22.9874  0.000e+00
      2.000    24.5491   5.179360    34.4007    23.0262  0.000e+00
      3.000    24.4605   5.170458    34.4018    23.0536  0.000e+00
      4.000    24.3108   5.156360    34.4109    23.1052  0.000e+00
      5.000    24.1507   5.141049    34.4188    23.1588  0.000e+00
      6.000    24.0077   5.127787    34.4289    23.2089  0.000e+00
      7.000    23.7803   5.111439    34.4811    23.3154  0.000e+00
      8.000    23.6968   5.100246    34.4607    23.3245  0.000e+00
      9.000    23.6003   5.089126    34.4509    23.3454  0.000e+00
     10.000    23.5231   5.081697    34.4541    23.3704  0.000e+00
     11.000    23.3659   5.066872    34.4633    23.4231  0.000e+00
     12.000    23.2292   5.054129    34.4722    23.4696  0.000e+00
     13.000    23.0913   5.041846    34.4857    23.5196  0.000e+00
     14.000    22.9970   5.033575    34.4958    23.5545  0.000e+00
     15.000    22.9370   5.027269    34.4940    23.5704  0.000e+00
     16.000    22.9021   5.024521    34.4999    23.5850  0.000e+00
     17.000    22.6878   5.004028    34.5101    23.6540  0.000e+00
     18.000    22.3988   4.977370    34.5313    23.7521  0.000e+00
     19.000    22.3963   4.976635    34.5272    23.7498  0.000e+00
     20.000    22.3719   4.972307    34.5125    23.7456  0.000e+00
     21.000    22.2912   4.965877    34.5260    23.7787  0.000e+00
     22.000    22.3405   4.966601    34.4922    23.7392  0.000e+00
     23.000    22.1705   4.961658    34.5884    23.8601  0.000e+00
     24.000    22.0364   4.942119    34.5418    23.8623  0.000e+00
     25.000    21.9536   4.927784    34.4949    23.8499  0.000e+00
     26.000    21.7741   4.913799    34.5278    23.9249  0.000e+00
     27.000    21.7617   4.915860    34.5537    23.9480  0.000e+00
     28.000    21.7861   4.915105    34.5278    23.9217  0.000e+00
     29.000    21.7735   4.915180    34.5382    23.9331  0.000e+00
     30.000    21.7868   4.916707    34.5392    23.9302  0.000e+00
     31.000    21.8497   4.923539    34.5424    23.9153  0.000e+00
     32.000    21.8493   4.922421    34.5336    23.9087  0.000e+00
     33.000    21.8321   4.921771    34.5419    23.9199  0.000e+00
     34.000    21.7262   4.913291    34.5595    23.9626  0.000e+00
     35.000    21.6689   4.902591    34.5205    23.9489  0.000e+00
     36.000    21.4826   4.883094    34.5152    23.9963  0.000e+00
     37.000    21.4101   4.880369    34.5515    24.0439  0.000e+00
     38.000    21.4079   4.879494    34.5460    24.0404  0.000e+00
     39.000    21.3278   4.869147    34.5278    24.0486  0.000e+00
     40.000    20.5404   4.804833    34.6501    24.3548  0.000e+00
     41.000    19.7585   4.764268    34.9643    24.8011  0.000e+00
     42.000    19.4971   4.701788    34.6660    24.6414  0.000e+00
     43.000    19.4297   4.692922    34.6482    24.6453  0.000e+00
     44.000    19.4377   4.693551    34.6465    24.6419  0.000e+00
     45.000    19.4536   4.693325    34.6310    24.6261  0.000e+00
     46.000    19.4083   4.688509    34.6284    24.6358  0.000e+00
     47.000    19.2300   4.673638    34.6530    24.7005  0.000e+00
     48.000    19.0493   4.659761    34.6878    24.7734  0.000e+00
     49.000    18.8911   4.640147    34.6559    24.7892  0.000e+00
     50.000    18.8742   4.638041    34.6521    24.7906  0.000e+00
     51.000    18.8692   4.636790    34.6454    24.7868  0.000e+00
     52.000    18.8267   4.634426    34.6608    24.8094  0.000e+00
     53.000    18.8342   4.634439    34.6543    24.8025  0.000e+00
     54.000    18.8391   4.633428    34.6413    24.7915  0.000e+00
     55.000    18.7209   4.620361    34.6304    24.8130  0.000e+00
     56.000    18.6788   4.616903    34.6363    24.8281  0.000e+00
     57.000    18.5900   4.608852    34.6428    24.8554  0.000e+00
     58.000    18.4713   4.589297    34.5773    24.8351  0.000e+00
     59.000    17.8678   4.546509    34.7239    25.0965  0.000e+00
     60.000    17.6758   4.522442    34.6808    25.1104  0.000e+00
     61.000    17.5686   4.507619    34.6445    25.1085  0.000e+00
     62.000    17.4741   4.500829    34.6663    25.1482  0.000e+00
     63.000    17.4449   4.495619    34.6459    25.1396  0.000e+00
     64.000    17.3629   4.489639    34.6641    25.1733  0.000e+00
     65.000    17.3364   4.487149    34.6649    25.1803  0.000e+00
     66.000    17.2304   4.477048    34.6679    25.2081  0.000e+00
     67.000    17.1514   4.470552    34.6790    25.2355  0.000e+00
     68.000    17.1340   4.467214    34.6646    25.2286  0.000e+00
     69.000    17.0738   4.462650    34.6763    25.2519  0.000e+00
     70.000    16.9783   4.454128    34.6840    25.2805  0.000e+00
     71.000    16.9498   4.451083    34.6816    25.2855  0.000e+00
     72.000    16.8296   4.432081    34.6189    25.2657  0.000e+00
     73.000    16.5804   4.412292    34.6604    25.3560  0.000e+00
     74.000    16.5080   4.407349    34.6793    25.3874  0.000e+00
     75.000    16.4957   4.406240    34.6798    25.3907  0.000e+00
     76.000    16.4890   4.405250    34.6765    25.3898  0.000e+00
     77.000    16.4807   4.403346    34.6666    25.3841  0.000e+00
     78.000    16.3577   4.385211    34.6129    25.3714  0.000e+00
     79.000    16.1038   4.364058    34.6461    25.4554  0.000e+00
     80.000    16.0264   4.357208    34.6524    25.4779  0.000e+00
     81.000    15.9483   4.350123    34.6572    25.4994  0.000e+00
     82.000    15.9069   4.344524    34.6430    25.4980  0.000e+00
     83.000    15.8461   4.338428    34.6414    25.5106  0.000e+00
     84.000    15.7666   4.328660    34.6233    25.5147  0.000e+00
     85.000    15.6919   4.322514    34.6334    25.5393  0.000e+00
     86.000    15.6455   4.316932    34.6237    25.5423  0.000e+00
     87.000    15.4616   4.296429    34.6005    25.5657  0.000e+00
     88.000    15.3478   4.287352    34.6185    25.6048  0.000e+00
     89.000    15.2972   4.283092    34.6242    25.6205  0.000e+00
     90.000    15.2737   4.280867    34.6244    25.6259  0.000e+00
     91.000    15.2531   4.278902    34.6244    25.6305  0.000e+00
     92.000    15.2272   4.276106    34.6216    25.6341  0.000e+00
     93.000    15.1856   4.272807    34.6281    25.6483  0.000e+00
     94.000    15.1542   4.267860    34.6106    25.6417  0.000e+00
     95.000    15.1100   4.265014    34.6234    25.6614  0.000e+00
     96.000    15.0927   4.263296    34.6228    25.6647  0.000e+00
     97.000    15.0694   4.260765    34.6200    25.6677  0.000e+00
     98.000    15.0449   4.258555    34.6212    25.6741  0.000e+00
     99.000    15.0228   4.256114    34.6182    25.6766  0.000e+00
    100.000    15.0029   4.254480    34.6205    25.6828  0.000e+00
    101.000    14.9964   4.253362    34.6157    25.6806  0.000e+00
    102.000    14.9743   4.251546    34.6184    25.6875  0.000e+00
    103.000    14.9641   4.250530    34.6178    25.6893  0.000e+00
    104.000    14.9515   4.249109    34.6156    25.6904  0.000e+00
    105.000    14.9368   4.247530    34.6138    25.6923  0.000e+00
    106.000    14.8893   4.241385    34.5996    25.6916  0.000e+00
    107.000    14.7771   4.230173    34.5964    25.7136  0.000e+00
    108.000    14.7075   4.223497    34.5967    25.7289  0.000e+00
    109.000    14.6519   4.217635    34.5921    25.7374  0.000e+00
    110.000    14.5940   4.212133    34.5928    25.7504  0.000e+00
    111.000    14.5795   4.211131    34.5961    25.7561  0.000e+00
    112.000    14.5732   4.210544    34.5959    25.7573  0.000e+00
    113.000    14.5592   4.209030    34.5941    25.7589  0.000e+00
    114.000    14.5462   4.207454    34.5908    25.7592  0.000e+00
    115.000    14.5286   4.205736    34.5903    25.7626  0.000e+00
    116.000    14.5190   4.205092    34.5925    25.7664  0.000e+00
    117.000    14.5001   4.203013    34.5898    25.7685  0.000e+00
    118.000    14.4754   4.200157    34.5852    25.7702  0.000e+00
    119.000    14.4365   4.196259    34.5836    25.7773  0.000e+00
    120.000    14.4154   4.194104    34.5822    25.7807  0.000e+00
    121.000    14.3920   4.191885    34.5822    25.7858  0.000e+00
    122.000    14.3710   4.190057    34.5837    25.7914  0.000e+00
    123.000    14.3635   4.189350    34.5835    25.7929  0.000e+00
    124.000    14.3594   4.188872    34.5823    25.7929  0.000e+00
    125.000    14.3510   4.187995    34.5813    25.7939  0.000e+00
    126.000    14.3322   4.185047    34.5705    25.7896  0.000e+00
    127.000    14.2749   4.179919    34.5739    25.8045  0.000e+00
    128.000    14.2418   4.176570    34.5722    25.8101  0.000e+00
    129.000    14.2155   4.174369    34.5750    25.8179  0.000e+00
    130.000    14.1968   4.172402    34.5731    25.8204  0.000e+00
    131.000    14.1840   4.171271    34.5737    25.8236  0.000e+00
    132.000    14.1788   4.170783    34.5734    25.8245  0.000e+00
    133.000    14.1772   4.170661    34.5733    25.8248  0.000e+00
    134.000    14.1724   4.170104    34.5720    25.8249  0.000e+00
    135.000    14.1604   4.168767    34.5700    25.8258  0.000e+00
    136.000    14.1453   4.167441    34.5708    25.8297  0.000e+00
    137.000    14.1380   4.166655    34.5696    25.8304  0.000e+00
    138.000    14.1314   4.166083    34.5699    25.8319  0.000e+00
    139.000    14.1298   4.166013    34.5702    25.8326  0.000e+00
    140.000    14.1296   4.166072    34.5705    25.8329  0.000e+00
    141.000    14.1270   4.165665    34.5687    25.8321  0.000e+00
    142.000    14.1201   4.165134    34.5695    25.8342  0.000e+00
    143.000    14.1131   4.164429    34.5689    25.8352  0.000e+00
    144.000    14.1064   4.163687    34.5676    25.8356  0.000e+00
    145.000    14.1012   4.163226    34.5676    25.8367  0.000e+00
    146.000    14.0980   4.162965    34.5676    25.8375  0.000e+00
    147.000    14.0939   4.162590    34.5674    25.8382  0.000e+00
    148.000    14.0920   4.162503    34.5679    25.8390  0.000e+00
    149.000    14.0905   4.162357    34.5675    25.8390  0.000e+00
    150.000    14.0673   4.159173    34.5583    25.8368  0.000e+00
    151.000    14.0269   4.155662    34.5615    25.8478  0.000e+00
    152.000    14.0115   4.153744    34.5571    25.8477  0.000e+00
    153.000    13.9687   4.149011    34.5511    25.8520  0.000e+00
    154.000    13.9138   4.144157    34.5548    25.8664  0.000e+00
    155.000    13.8932   4.142125    34.5540    25.8700  0.000e+00
    156.000    13.8756   4.140076    34.5503    25.8709  0.000e+00
    157.000    13.8311   4.134949    34.5421    25.8738  0.000e+00
    158.000    13.8004   4.132991    34.5510    25.8871  0.000e+00
    159.000    13.7878   4.131614    34.5491    25.8882  0.000e+00
    160.000    13.7781   4.130621    34.5481    25.8895  0.000e+00
    161.000    13.7706   4.129875    34.5475    25.8906  0.000e+00
    162.000    13.7609   4.128907    34.5467    25.8921  0.000e+00
    163.000    13.7441   4.127046    34.5441    25.8935  0.000e+00
    164.000    13.7076   4.123307    34.5416    25.8992  0.000e+00
    165.000    13.6895   4.120727    34.5333    25.8965  0.000e+00
    166.000    13.6599   4.118631    34.5399    25.9078  0.000e+00
    167.000    13.6486   4.117915    34.5430    25.9125  0.000e+00
    168.000    13.6414   4.116608    34.5368    25.9093  0.000e+00
    169.000    13.6158   4.114684    34.5415    25.9182  0.000e+00
    170.000    13.6164   4.114552    34.5393    25.9164  0.000e+00
    171.000    13.6131   4.114188    34.5384    25.9164  0.000e+00
    172.000    13.6083   4.113907    34.5397    25.9184  0.000e+00
    173.000    13.6111   4.114330    34.5408    25.9187  0.000e+00
    174.000    13.6105   4.114223    34.5399    25.9182  0.000e+00
    175.000    13.6190   4.115202    34.5410    25.9173  0.000e+00
    176.000    13.6221   4.114778    34.5338    25.9111  0.000e+00
    177.000    13.6056   4.113173    34.5332    25.9141  0.000e+00
    178.000    13.5824   4.111556    34.5386    25.9230  0.000e+00
    179.000    13.5814   4.111524    34.5388    25.9234  0.000e+00
    180.000    13.5827   4.111739    34.5392    25.9235  0.000e+00
    181.000    13.5784   4.111350    34.5390    25.9243  0.000e+00
    182.000    13.5685   4.110328    34.5379    25.9255  0.000e+00
    183.000    13.5695   4.110460    34.5379    25.9253  0.000e+00
    184.000    13.5689   4.110408    34.5375    25.9252  0.000e+00
    185.000    13.5674   4.110495    34.5393    25.9268  0.000e+00
    186.000    13.5691   4.110555    34.5379    25.9255  0.000e+00
    187.000    13.5643   4.110221    34.5387    25.9271  0.000e+00
    188.000    13.5707   4.110671    34.5367    25.9243  0.000e+00
    189.000    13.5710   4.110897    34.5381    25.9254  0.000e+00
    190.000    13.5678   4.111136    34.5429    25.9297  0.000e+00
    191.000    13.5644   4.110083    34.5356    25.9248  0.000e+00
    192.000    13.5570   4.109775    34.5390    25.9290  0.000e+00
    193.000    13.5565   4.109630    34.5377    25.9281  0.000e+00
    194.000    13.5562   4.109575    34.5370    25.9277  0.000e+00
    195.000    13.5588   4.109990    34.5382    25.9281  0.000e+00
    196.000    13.5609   4.110003    34.5360    25.9260  0.000e+00
    197.000    13.5605   4.110100    34.5368    25.9267  0.000e+00
    198.000    13.5579   4.109503    34.5332    25.9245  0.000e+00
    199.000    13.5374   4.106276    34.5210    25.9192  0.000e+00
    200.000    13.4918   4.103203    34.5329    25.9378  0.000e+00
    201.000    13.5014   4.104088    34.5321    25.9353  0.000e+00
    202.000    13.4851   4.102114    34.5278    25.9353  0.000e+00
    203.000    13.4794   4.102222    34.5336    25.9410  0.000e+00
    204.000    13.4824   4.102634    34.5344    25.9410  0.000e+00
    205.000    13.4774   4.102343    34.5357    25.9431  0.000e+00
    206.000    13.4801   4.102537    34.5347    25.9418  0.000e+00
    207.000    13.4812   4.102612    34.5340    25.9410  0.000e+00
    208.000    13.4738   4.101831    34.5329    25.9417  0.000e+00
    209.000    13.4729   4.102069    34.5356    25.9440  0.000e+00
    210.000    13.4606   4.099609    34.5231    25.9369  0.000e+00
    211.000    13.4455   4.098843    34.5292    25.9447  0.000e+00
    212.000    13.4320   4.098034    34.5333    25.9507  0.000e+00
    213.000    13.4206   4.096504    34.5288    25.9495  0.000e+00
    214.000    13.4228   4.097248    34.5334    25.9527  0.000e+00
    215.000    13.4201   4.096355    34.5270    25.9483  0.000e+00
    216.000    13.4110   4.095599    34.5277    25.9508  0.000e+00
    217.000    13.4003   4.095075    34.5321    25.9563  0.000e+00
    218.000    13.4010   4.094959    34.5299    25.9545  0.000e+00
    219.000    13.3876   4.092262    34.5162    25.9467  0.000e+00
    220.000    13.3011   4.083134    34.5080    25.9579  0.000e+00
    221.000    13.2200   4.077540    34.5282    25.9899  0.000e+00
    222.000    13.2219   4.077369    34.5245    25.9867  0.000e+00
    223.000    13.2346   4.078794    34.5260    25.9853  0.000e+00
    224.000    13.2360   4.079102    34.5272    25.9860  0.000e+00
    225.000    13.2427   4.078952    34.5193    25.9786  0.000e+00
    226.000    13.2374   4.079205    34.5261    25.9849  0.000e+00
    227.000    13.2492   4.079786    34.5205    25.9782  0.000e+00
    228.000    13.2018   4.074151    34.5098    25.9795  0.000e+00
    229.000    13.1787   4.072565    34.5153    25.9885  0.000e+00
    230.000    13.1595   4.071494    34.5222    25.9977  0.000e+00
    231.000    13.1256   4.067627    34.5159    25.9996  0.000e+00
    232.000    13.1217   4.067337    34.5163    26.0007  0.000e+00
    233.000    13.0289   4.054499    34.4783    25.9899  0.000e+00
    234.000    12.8655   4.043312    34.5201    26.0549  0.000e+00
    235.000    12.8186   4.037329    34.5054    26.0528  0.000e+00
    236.000    12.7862   4.034157    34.5043    26.0583  0.000e+00
    237.000    12.7659   4.031428    34.4963    26.0561  0.000e+00
    238.000    12.7125   4.026929    34.5016    26.0708  0.000e+00
    239.000    12.1932   3.974249    34.4702    26.1472  0.000e+00
    240.000    12.1666   3.972124    34.4736    26.1550  0.000e+00
    241.000    12.1751   3.973729    34.4809    26.1591  0.000e+00
    242.000    12.1330   3.968036    34.4641    26.1541  0.000e+00
    243.000    12.1258   3.967495    34.4651    26.1562  0.000e+00
    244.000    12.1218   3.967084    34.4643    26.1564  0.000e+00
    245.000    12.1183   3.966815    34.4645    26.1573  0.000e+00
    246.000    12.1137   3.966576    34.4660    26.1593  0.000e+00
    247.000    12.1225   3.967750    34.4689    26.1599  0.000e+00
    248.000    12.1309   3.968292    34.4660    26.1561  0.000e+00
    249.000    12.1194   3.967230    34.4658    26.1582  0.000e+00
    250.000    12.1275   3.966576    34.4516    26.1456  0.000e+00
    251.000    12.1191   3.966487    34.4580    26.1522  0.000e+00
    252.000    12.0795   3.963368    34.4638    26.1643  0.000e+00
    253.000    12.0659   3.961820    34.4609    26.1646  0.000e+00
    254.000    12.0612   3.961309    34.4598    26.1647  0.000e+00
    255.000    12.0597   3.961560    34.4632    26.1677  0.000e+00
    256.000    12.0586   3.961599    34.4642    26.1687  0.000e+00
    257.000    12.0593   3.961314    34.4604    26.1656  0.000e+00
    258.000    12.0439   3.960127    34.4626    26.1703  0.000e+00
    259.000    12.0394   3.960107    34.4661    26.1739  0.000e+00
    260.000    12.0397   3.958207    34.4470    26.1590  0.000e+00
    261.000    11.9937   3.954666    34.4545    26.1736  0.000e+00
    262.000    11.9812   3.954179    34.4609    26.1809  0.000e+00
    263.000    11.9969   3.955650    34.4603    26.1775  0.000e+00
    264.000    11.9768   3.953402    34.4565    26.1784  0.000e+00
    265.000    11.9473   3.949278    34.4432    26.1737  0.000e+00
    266.000    11.9222   3.946693    34.4408    26.1765  0.000e+00
    267.000    11.8439   3.938891    34.4366    26.1881  0.000e+00
    268.000    11.7230   3.927963    34.4412    26.2143  0.000e+00
    269.000    11.6795   3.924344    34.4456    26.2259  0.000e+00
    270.000    11.6716   3.923456    34.4438    26.2260  0.000e+00
    271.000    11.6597   3.922039    34.4405    26.2256  0.000e+00
    272.000    11.6341   3.919794    34.4418    26.2314  0.000e+00
    273.000    11.6162   3.918030    34.4406    26.2339  0.000e+00
    274.000    11.5990   3.916341    34.4396    26.2363  0.000e+00
    275.000    11.5391   3.908826    34.4209    26.2329  0.000e+00
    276.000    11.4363   3.899722    34.4264    26.2561  0.000e+00
    277.000    11.2882   3.885167    34.4201    26.2784  0.000e+00
    278.000    11.1830   3.876084    34.4279    26.3036  0.000e+00
    279.000    11.0871   3.866485    34.4217    26.3162  0.000e+00
    280.000    11.0232   3.860538    34.4219    26.3278  0.000e+00
    281.000    10.9827   3.857834    34.4325    26.3434  0.000e+00
    282.000    10.9294   3.853771    34.4415    26.3599  0.000e+00
    283.000    10.9101   3.849858    34.4201    26.3468  0.000e+00
    284.000    10.8908   3.847098    34.4102    26.3425  0.000e+00
    285.000    10.8636   3.844959    34.4139    26.3503  0.000e+00
    286.000    10.8466   3.843635    34.4162    26.3551  0.000e+00
    287.000    10.8311   3.841915    34.4131    26.3555  0.000e+00
    288.000    10.8149   3.840619    34.4149    26.3598  0.000e+00
    289.000    10.8064   3.839828    34.4146    26.3610  0.000e+00
    290.000    10.8044   3.839577    34.4135    26.3606  0.000e+00
    291.000    10.7955   3.838289    34.4085    26.3583  0.000e+00
    292.000    10.7758   3.836129    34.4050    26.3590  0.000e+00
    293.000    10.7560   3.834153    34.4033    26.3613  0.000e+00
    294.000    10.7284   3.831530    34.4026    26.3656  0.000e+00
    295.000    10.6947   3.828874    34.4072    26.3752  0.000e+00
    296.000    10.6289   3.822069    34.4003    26.3814  0.000e+00
    297.000    10.6140   3.820660    34.3997    26.3836  0.000e+00
    298.000    10.6105   3.820413    34.4001    26.3845  0.000e+00
    299.000    10.6041   3.819488    34.3964    26.3828  0.000e+00
    300.000    10.5877   3.817714    34.3936    26.3835  0.000e+00
    301.000    10.5175   3.810425    34.3859    26.3898  0.000e+00
    302.000    10.4869   3.808210    34.3920    26.3999  0.000e+00
    303.000    10.4619   3.805954    34.3924    26.4046  0.000e+00
    304.000    10.4360   3.803463    34.3912    26.4082  0.000e+00
    305.000    10.4238   3.802593    34.3935    26.4121  0.000e+00
    306.000    10.4212   3.802412    34.3937    26.4127  0.000e+00
    307.000    10.4192   3.802134    34.3924    26.4121  0.000e+00
    308.000    10.4130   3.801567    34.3920    26.4129  0.000e+00
    309.000    10.4106   3.801524    34.3934    26.4144  0.000e+00
    310.000    10.4114   3.801460    34.3916    26.4129  0.000e+00
    311.000    10.4021   3.800924    34.3945    26.4168  0.000e+00
    312.000    10.3923   3.799979    34.3938    26.4179  0.000e+00
    313.000    10.3854   3.799187    34.3919    26.4176  0.000e+00
    314.000    10.3822   3.798850    34.3910    26.4176  0.000e+00
    315.000    10.3808   3.798733    34.3907    26.4176  0.000e+00
    316.000    10.3697   3.797868    34.3920    26.4206  0.000e+00
    317.000    10.3659   3.797431    34.3908    26.4202  0.000e+00
    318.000    10.3665   3.797368    34.3891    26.4189  0.000e+00
    319.000    10.3677   3.797660    34.3905    26.4198  0.000e+00
    320.000    10.3646   3.797276    34.3891    26.4192  0.000e+00
    321.000    10.3601   3.796833    34.3884    26.4195  0.000e+00
    322.000    10.3557   3.796503    34.3888    26.4206  0.000e+00
    323.000    10.3539   3.796228    34.3873    26.4197  0.000e+00
    324.000    10.3455   3.795528    34.3877    26.4215  0.000e+00
    325.000    10.3362   3.794898    34.3897    26.4247  0.000e+00
    326.000    10.3183   3.793430    34.3913    26.4291  0.000e+00
    327.000    10.2946   3.790964    34.3883    26.4308  0.000e+00
    328.000    10.2116   3.783480    34.3905    26.4469  0.000e+00
    329.000    10.1054   3.774838    34.4030    26.4747  0.000e+00
    330.000    10.0909   3.772809    34.3956    26.4715  0.000e+00
    331.000    10.0471   3.768643    34.3944    26.4779  0.000e+00
    332.000    10.0322   3.767965    34.4011    26.4858  0.000e+00
    333.000    10.0306   3.767720    34.3997    26.4850  0.000e+00
    334.000    10.0246   3.766785    34.3955    26.4827  0.000e+00
    335.000    10.0024   3.765057    34.3985    26.4888  0.000e+00
    336.000     9.9893   3.763640    34.3960    26.4891  0.000e+00
    337.000     9.9508   3.760991    34.4052    26.5028  0.000e+00
    338.000     9.9289   3.757797    34.3929    26.4970  0.000e+00
    339.000     9.9111   3.757040    34.4017    26.5068  0.000e+00
    340.000     9.9080   3.756890    34.4026    26.5081  0.000e+00
    341.000     9.9099   3.757039    34.4019    26.5072  0.000e+00
    342.000     9.9008   3.755992    34.3994    26.5068  0.000e+00
    343.000     9.8905   3.755403    34.4028    26.5112  0.000e+00
    344.000     9.8946   3.755323    34.3976    26.5065  0.000e+00
    345.000     9.8908   3.755198    34.3995    26.5086  0.000e+00
    346.000     9.8835   3.754792    34.4018    26.5117  0.000e+00
    347.000     9.8883   3.754883    34.3977    26.5077  0.000e+00
    348.000     9.8764   3.753844    34.3980    26.5099  0.000e+00
    349.000     9.8639   3.752288    34.3935    26.5086  0.000e+00
    350.000     9.8403   3.750421    34.3965    26.5148  0.000e+00
    351.000     9.8180   3.748283    34.3954    26.5177  0.000e+00
    352.000     9.8074   3.744106    34.3623    26.4937  0.000e+00
    353.000     9.7880   3.745538    34.3950    26.5225  0.000e+00
    354.000     9.7579   3.741915    34.3861    26.5206  0.000e+00
    355.000     9.7173   3.739368    34.3982    26.5368  0.000e+00
    356.000     9.6703   3.734293    34.3905    26.5386  0.000e+00
    357.000     9.6238   3.729196    34.3821    26.5397  0.000e+00
    358.000     9.5850   3.726194    34.3878    26.5506  0.000e+00
    359.000     9.5583   3.724543    34.3959    26.5614  0.000e+00
    360.000     9.5352   3.721181    34.3829    26.5550  0.000e+00
    361.000     9.4489   3.713725    34.3881    26.5733  0.000e+00
    362.000     9.4292   3.711778    34.3864    26.5752  0.000e+00
    363.000     9.4200   3.711070    34.3875    26.5775  0.000e+00
    364.000     9.4383   3.712966    34.3891    26.5758  0.000e+00
    365.000     9.4498   3.714097    34.3893    26.5741  0.000e+00
    366.000     9.4613   3.716125    34.3987    26.5797  0.000e+00
    367.000     9.4694   3.718145    34.4114    26.5882  0.000e+00
    368.000     9.4894   3.718583    34.3963    26.5732  0.000e+00
    369.000     9.4842   3.716369    34.3780    26.5597  0.000e+00
    370.000     9.4827   3.718327    34.3992    26.5766  0.000e+00
    371.000     9.4758   3.717683    34.3987    26.5773  0.000e+00
    372.000     9.4429   3.713429    34.3858    26.5727  0.000e+00
    373.000     9.4069   3.711121    34.3960    26.5865  0.000e+00
    374.000     9.3974   3.709837    34.3914    26.5845  0.000e+00
    375.000     9.3898   3.708810    34.3876    26.5828  0.000e+00
    376.000     9.3821   3.708838    34.3948    26.5897  0.000e+00
    377.000     9.3822   3.708860    34.3945    26.5894  0.000e+00
    378.000     9.3759   3.708370    34.3950    26.5909  0.000e+00
    379.000     9.3724   3.707914    34.3932    26.5901  0.000e+00
    380.000     9.3434   3.705276    34.3933    26.5948  0.000e+00
    381.000     9.3323   3.703972    34.3900    26.5941  0.000e+00
    382.000     9.3234   3.703323    34.3913    26.5966  0.000e+00
    383.000     9.3069   3.701819    34.3911    26.5991  0.000e+00
    384.000     9.2597   3.697664    34.3929    26.6082  0.000e+00
    385.000     9.2686   3.697953    34.3869    26.6021  0.000e+00
    386.000     9.2489   3.696702    34.3924    26.6096  0.000e+00
    387.000     9.2444   3.696155    34.3906    26.6089  0.000e+00
    388.000     9.2400   3.696132    34.3941    26.6124  0.000e+00
    389.000     9.2352   3.696154    34.3985    26.6166  0.000e+00
    390.000     9.2217   3.695389    34.4031    26.6224  0.000e+00
    391.000     9.2152   3.694120    34.3957    26.6177  0.000e+00
    392.000     9.2107   3.692484    34.3826    26.6081  0.000e+00
    393.000     9.1818   3.691214    34.3967    26.6239  0.000e+00
    394.000     9.1841   3.691515    34.3972    26.6239  0.000e+00
    395.000     9.1936   3.692253    34.3953    26.6209  0.000e+00
    396.000     9.1888   3.691851    34.3953    26.6216  0.000e+00
    397.000     9.1796   3.690900    34.3938    26.6220  0.000e+00
    398.000     9.1712   3.689886    34.3908    26.6211  0.000e+00
    399.000     9.1788   3.691165    34.3964    26.6242  0.000e+00
    400.000     9.1755   3.690658    34.3938    26.6227  0.000e+00
    401.000     9.1600   3.688077    34.3815    26.6156  0.000e+00
    402.000     9.0930   3.682930    34.3919    26.6345  0.000e+00
    403.000     9.0867   3.681461    34.3822    26.6279  0.000e+00
    404.000     9.0564   3.678954    34.3848    26.6348  0.000e+00
    405.000     9.0423   3.677817    34.3861    26.6381  0.000e+00
    406.000     9.0096   3.673686    34.3741    26.6339  0.000e+00
    407.000     8.9609   3.672024    34.4032    26.6644  0.000e+00
    408.000     8.9688   3.672033    34.3953    26.6569  0.000e+00
    409.000     8.9732   3.672385    34.3942    26.6555  0.000e+00
    410.000     8.9814   3.673023    34.3925    26.6528  0.000e+00
    411.000     8.9704   3.672700    34.3993    26.6599  0.000e+00
    412.000     8.9865   3.673701    34.3938    26.6530  0.000e+00
    413.000     8.9845   3.673572    34.3939    26.6535  0.000e+00
    414.000     8.9742   3.672163    34.3887    26.6510  0.000e+00
    415.000     8.9675   3.672867    34.4020    26.6626  0.000e+00
    416.000     8.9771   3.673466    34.3985    26.6583  0.000e+00
    417.000     8.9882   3.673797    34.3908    26.6506  0.000e+00
    418.000     8.9556   3.670990    34.3925    26.6571  0.000e+00
    419.000     8.9538   3.671203    34.3960    26.6601  0.000e+00
    420.000     8.9807   3.674144    34.4003    26.6592  0.000e+00
    421.000     8.9819   3.674506    34.4025    26.6608  0.000e+00
    422.000     9.0115   3.675343    34.3822    26.6402  0.000e+00
    423.000     9.0112   3.676336    34.3924    26.6483  0.000e+00
    424.000     9.0100   3.677130    34.4014    26.6555  0.000e+00
    425.000     9.0134   3.677108    34.3974    26.6519  0.000e+00
    426.000     9.0058   3.676696    34.4000    26.6551  0.000e+00
    427.000     9.0079   3.677415    34.4050    26.6587  0.000e+00
    428.000     8.9899   3.675276    34.3996    26.6574  0.000e+00
    429.000     8.9634   3.673419    34.4053    26.6661  0.000e+00
    430.000     8.9577   3.672238    34.3980    26.6613  0.000e+00
    431.000     8.9156   3.667432    34.3880    26.6601  0.000e+00
    432.000     8.7480   3.652841    34.3967    26.6932  0.000e+00
    433.000     8.5571   3.631368    34.3553    26.6903  0.000e+00
    434.000     8.4078   3.623857    34.4205    26.7643  0.000e+00
    435.000     8.4253   3.622823    34.3921    26.7394  0.000e+00
    436.000     8.3697   3.616285    34.3765    26.7357  0.000e+00
    437.000     8.3356   3.614104    34.3862    26.7484  0.000e+00
    438.000     8.3351   3.613537    34.3802    26.7438  0.000e+00
    439.000     8.3156   3.612749    34.3903    26.7547  0.000e+00
    440.000     8.2919   3.608035    34.3630    26.7368  0.000e+00
    441.000     8.2498   3.606069    34.3826    26.7587  0.000e+00
    442.000     8.2275   3.604016    34.3821    26.7616  0.000e+00
    443.000     8.2176   3.602967    34.3802    26.7616  0.000e+00
    444.000     8.2010   3.601725    34.3827    26.7661  0.000e+00
    445.000     8.1979   3.601238    34.3801    26.7645  0.000e+00
    446.000     8.1832   3.600445    34.3855    26.7710  0.000e+00
    447.000     8.1550   3.596235    34.3678    26.7613  0.000e+00
    448.000     8.0693   3.590599    34.3909    26.7923  0.000e+00
    449.000     8.0673   3.590864    34.3953    26.7960  0.000e+00
    450.000     8.0225   3.584300    34.3686    26.7817  0.000e+00
    451.000     7.8171   3.563167    34.3430    26.7918  0.000e+00
    452.000     7.7286   3.559352    34.3884    26.8404  0.000e+00
    453.000     7.7282   3.558796    34.3823    26.8357  0.000e+00
    454.000     7.7212   3.558560    34.3862    26.8397  0.000e+00
    455.000     7.7194   3.558519    34.3871    26.8407  0.000e+00
    456.000     7.6854   3.554093    34.3724    26.8341  0.000e+00
    457.000     7.6013   3.546255    34.3702    26.8445  0.000e+00
    458.000     7.5766   3.545574    34.3867    26.8610  0.000e+00
    459.000     7.5941   3.547783    34.3928    26.8633  0.000e+00
    460.000     7.5959   3.546528    34.3770    26.8507  0.000e+00
    461.000     7.5734   3.543036    34.3610    26.8413  0.000e+00
    462.000     7.5644   3.543537    34.3748    26.8535  0.000e+00
    463.000     7.5935   3.547779    34.3915    26.8624  0.000e+00
    464.000     7.5867   3.547049    34.3898    26.8621  0.000e+00
    465.000     7.4866   3.536755    34.3768    26.8662  0.000e+00
    466.000     7.4090   3.529471    34.3740    26.8750  0.000e+00
    467.000     7.3664   3.525449    34.3720    26.8794  0.000e+00
    468.000     7.3336   3.523864    34.3867    26.8957  0.000e+00
    469.000     7.3583   3.525332    34.3778    26.8852  0.000e+00
    470.000     7.3479   3.524457    34.3781    26.8869  0.000e+00
    471.000     7.3389   3.523883    34.3803    26.8899  0.000e+00
    472.000     7.3398   3.523352    34.3731    26.8842  0.000e+00
    473.000     7.3196   3.522219    34.3803    26.8927  0.000e+00
    474.000     7.3224   3.522488    34.3800    26.8920  0.000e+00
    475.000     7.3195   3.521972    34.3768    26.8899  0.000e+00
    476.000     7.2949   3.519804    34.3771    26.8936  0.000e+00
    477.000     7.2815   3.517472    34.3645    26.8856  0.000e+00
    478.000     7.2440   3.515871    34.3837    26.9060  0.000e+00
    479.000     7.1740   3.510549    34.3946    26.9244  0.000e+00
    480.000     7.1470   3.506436    34.3761    26.9135  0.000e+00
    481.000     7.1469   3.506701    34.3786    26.9155  0.000e+00
    482.000     7.1478   3.506447    34.3744    26.9121  0.000e+00
    483.000     7.1389   3.505590    34.3734    26.9126  0.000e+00
    484.000     7.1343   3.504731    34.3681    26.9091  0.000e+00
    485.000     7.1057   3.502415    34.3708    26.9151  0.000e+00
    486.000     7.1040   3.502861    34.3768    26.9201  0.000e+00
    487.000     7.1104   3.502743    34.3687    26.9129  0.000e+00
    488.000     7.0959   3.501416    34.3681    26.9144  0.000e+00
    489.000     7.0690   3.499358    34.3719    26.9211  0.000e+00
    490.000     7.0610   3.498099    34.3656    26.9172  0.000e+00
    491.000     7.0437   3.496940    34.3696    26.9228  0.000e+00
    492.000     7.0371   3.496556    34.3715    26.9252  0.000e+00
    493.000     7.0350   3.496379    34.3711    26.9252  0.000e+00
    494.000     7.0352   3.496081    34.3672    26.9221  0.000e+00
    495.000     7.0312   3.495384    34.3631    26.9194  0.000e+00
    496.000     7.0024   3.494203    34.3783    26.9354  0.000e+00
    497.000     6.9987   3.493158    34.3700    26.9294  0.000e+00
    498.000     6.9850   3.492029    34.3708    26.9319  0.000e+00
    499.000     6.9771   3.491702    34.3746    26.9360  0.000e+00
    500.000     6.9713   3.491353    34.3760    26.9379  0.000e+00
    501.000     6.9721   3.491312    34.3743    26.9365  0.000e+00
    502.000     6.9702   3.491254    34.3751    26.9373  0.000e+00
    503.000     6.9695   3.491298    34.3758    26.9380  0.000e+00
    504.000     6.9675   3.491215    34.3764    26.9388  0.000e+00
    505.000     6.9688   3.491377    34.3764    26.9386  0.000e+00
    506.000     6.9682   3.491411    34.3769    26.9391  0.000e+00
    507.000     6.9699   3.491547    34.3762    26.9383  0.000e+00
    508.000     6.9704   3.491554    34.3753    26.9376  0.000e+00
    509.000     6.9694   3.491591    34.3762    26.9384  0.000e+00
    510.000     6.9673   3.491474    34.3765    26.9390  0.000e+00
    511.000     6.9586   3.491185    34.3815    26.9441  0.000e+00
    512.000     6.9537   3.490837    34.3821    26.9453  0.000e+00
    513.000     6.9531   3.490810    34.3819    26.9452  0.000e+00
    514.000     6.9525   3.490787    34.3818    26.9452  0.000e+00
    515.000     6.9501   3.490683    34.3826    26.9462  0.000e+00
    516.000     6.9494   3.490703    34.3830    26.9466  0.000e+00
    517.000     6.9467   3.490608    34.3842    26.9479  0.000e+00
    518.000     6.9501   3.491240    34.3872    26.9499  0.000e+00
    519.000     6.9535   3.491210    34.3830    26.9461  0.000e+00
    520.000     6.9469   3.490783    34.3845    26.9481  0.000e+00
    521.000     6.9434   3.490152    34.3805    26.9455  0.000e+00
    522.000     6.9315   3.489475    34.3845    26.9503  0.000e+00
    523.000     6.9342   3.489837    34.3853    26.9506  0.000e+00
    524.000     6.9441   3.490580    34.3831    26.9475  0.000e+00
    525.000     6.9481   3.491025    34.3835    26.9473  0.000e+00
    526.000     6.9255   3.489177    34.3853    26.9518  0.000e+00
    527.000     6.9241   3.489450    34.3892    26.9550  0.000e+00
    528.000     6.9268   3.488777    34.3786    26.9464  0.000e+00
    529.000     6.9109   3.487987    34.3853    26.9538  0.000e+00
    530.000     6.9107   3.488179    34.3871    26.9553  0.000e+00
    531.000     6.9093   3.487845    34.3844    26.9533  0.000e+00
    532.000     6.9015   3.487207    34.3846    26.9546  0.000e+00
    533.000     6.8911   3.485433    34.3750    26.9485  0.000e+00
    534.000     6.8822   3.485178    34.3806    26.9541  0.000e+00
    535.000     6.8925   3.486160    34.3807    26.9528  0.000e+00
    536.000     6.8842   3.485990    34.3866    26.9586  0.000e+00
    537.000     6.8714   3.484441    34.3818    26.9566  0.000e+00
    538.000     6.8417   3.482945    34.3945    26.9706  0.000e+00
    539.000     6.8448   3.482600    34.3872    26.9644  0.000e+00
    540.000     6.8452   3.483311    34.3941    26.9698  0.000e+00
    541.000     6.8579   3.483706    34.3853    26.9612  0.000e+00
    542.000     6.8279   3.483000    34.4069    26.9823  0.000e+00
    543.000     6.8087   3.479513    34.3873    26.9694  0.000e+00
    544.000     6.6651   3.466251    34.3840    26.9860  0.000e+00
    545.000     6.6411   3.464035    34.3830    26.9885  0.000e+00
    546.000     6.5989   3.461296    34.3944    27.0031  0.000e+00
    547.000     6.6024   3.461148    34.3888    26.9982  0.000e+00
    548.000     6.6043   3.461269    34.3878    26.9971  0.000e+00
    549.000     6.5970   3.460869    34.3902    27.0000  0.000e+00
    550.000     6.5954   3.460415    34.3863    26.9972  0.000e+00
    551.000     6.5914   3.460333    34.3889    26.9998  0.000e+00
    552.000     6.5765   3.458925    34.3877    27.0008  0.000e+00
    553.000     6.5911   3.459953    34.3840    26.9960  0.000e+00
    554.000     6.5714   3.458917    34.3918    27.0047  0.000e+00
    555.000     6.5841   3.459998    34.3905    27.0021  0.000e+00
    556.000     6.5904   3.460655    34.3910    27.0017  0.000e+00
    557.000     6.6210   3.462313    34.3783    26.9876  0.000e+00
    558.000     6.6962   3.469907    34.3865    26.9840  0.000e+00
    559.000     6.6969   3.469859    34.3848    26.9826  0.000e+00
    560.000     6.6558   3.465886    34.3815    26.9855  0.000e+00
    561.000     6.6899   3.469211    34.3837    26.9827  0.000e+00
    562.000     6.6653   3.468209    34.3967    26.9963  0.000e+00
    563.000     6.6912   3.468174    34.3700    26.9717  0.000e+00
    564.000     6.6248   3.465792    34.4095    27.0118  0.000e+00
    565.000     6.6072   3.463198    34.3980    27.0050  0.000e+00
    566.000     6.6620   3.467247    34.3874    26.9895  0.000e+00
    567.000     6.6633   3.467440    34.3878    26.9896  0.000e+00
    568.000     6.6630   3.467528    34.3886    26.9902  0.000e+00
    569.000     6.6655   3.467590    34.3863    26.9881  0.000e+00
    570.000     6.6694   3.467982    34.3862    26.9876  0.000e+00
    571.000     6.6754   3.468527    34.3858    26.9864  0.000e+00
    572.000     6.6737   3.468460    34.3862    26.9870  0.000e+00
    573.000     6.6666   3.467619    34.3836    26.9859  0.000e+00
    574.000     6.6460   3.466738    34.3939    26.9968  0.000e+00
    575.000     6.6600   3.464591    34.3558    26.9649  0.000e+00
    576.000     6.6481   3.465004    34.3717    26.9791  0.000e+00
    577.000     6.6698   3.467908    34.3816    26.9840  0.000e+00
    578.000     6.6673   3.468420    34.3893    26.9904  0.000e+00
    579.000     6.6714   3.468728    34.3881    26.9889  0.000e+00
    580.000     6.6770   3.469236    34.3877    26.9878  0.000e+00
    581.000     6.6789   3.469237    34.3853    26.9857  0.000e+00
    582.000     6.6752   3.469202    34.3881    26.9884  0.000e+00
    583.000     6.6453   3.463587    34.3555    26.9667  0.000e+00
    584.000     6.5472   3.457645    34.3874    27.0049  0.000e+00
    585.000     6.5329   3.456932    34.3933    27.0114  0.000e+00
    586.000     6.5368   3.456490    34.3841    27.0036  0.000e+00
    587.000     6.5343   3.457796    34.4005    27.0170  0.000e+00
    588.000     6.5760   3.460995    34.3937    27.0061  0.000e+00
    589.000     6.5606   3.458512    34.3812    26.9982  0.000e+00
    590.000     6.5469   3.457980    34.3885    27.0059  0.000e+00
    591.000     6.5379   3.457279    34.3893    27.0077  0.000e+00
    592.000     6.5532   3.458482    34.3868    27.0037  0.000e+00
    593.000     6.5610   3.459074    34.3851    27.0013  0.000e+00
    594.000     6.5507   3.459017    34.3943    27.0099  0.000e+00
    595.000     6.5641   3.460203    34.3935    27.0076  0.000e+00
    596.000     6.5734   3.460730    34.3895    27.0032  0.000e+00
    597.000     6.5585   3.459436    34.3896    27.0053  0.000e+00
    598.000     6.5654   3.460000    34.3885    27.0035  0.000e+00
    599.000     6.5449   3.458475    34.3917    27.0087  0.000e+00
    600.000     6.5452   3.458533    34.3915    27.0086  0.000e+00
    601.000     6.5426   3.458108    34.3889    27.0069  0.000e+00
    602.000     6.5343   3.457991    34.3955    27.0131  0.000e+00
    603.000     6.5426   3.458256    34.3896    27.0074  0.000e+00
    604.000     6.5475   3.458834    34.3906    27.0076  0.000e+00
    605.000     6.5502   3.458858    34.3877    27.0050  0.000e+00
    606.000     6.5104   3.455044    34.3848    27.0079  0.000e+00
    607.000     6.4998   3.454653    34.3906    27.0139  0.000e+00
    608.000     6.4960   3.454035    34.3871    27.0116  0.000e+00
    609.000     6.4830   3.453107    34.3893    27.0151  0.000e+00
    610.000     6.4700   3.451080    34.3794    27.0090  0.000e+00
    611.000     6.4401   3.447459    34.3687    27.0045  0.000e+00
    612.000     6.4256   3.447710    34.3855    27.0197  0.000e+00
    613.000     6.4307   3.448864    34.3928    27.0247  0.000e+00
    614.000     6.4547   3.451193    34.3941    27.0226  0.000e+00
    615.000     6.4635   3.451696    34.3903    27.0185  0.000e+00
    616.000     6.4534   3.449655    34.3773    27.0096  0.000e+00
    617.000     6.4515   3.453155    34.4176    27.0416  0.000e+00
    618.000     6.4782   3.454035    34.4001    27.0244  0.000e+00
    619.000     6.4773   3.454222    34.4026    27.0264  0.000e+00
    620.000     6.4503   3.452738    34.4127    27.0380  0.000e+00
    621.000     6.4632   3.451999    34.3911    27.0193  0.000e+00
    622.000     6.4556   3.451093    34.3882    27.0180  0.000e+00
    623.000     6.4243   3.449478    34.4011    27.0323  0.000e+00
    624.000     6.4065   3.449658    34.4205    27.0499  0.000e+00
    625.000     6.4865   3.455225    34.4016    27.0245  0.000e+00
    626.000     6.4877   3.454372    34.3904    27.0156  0.000e+00
    627.000     6.4853   3.454431    34.3930    27.0180  0.000e+00
    628.000     6.4872   3.454695    34.3936    27.0182  0.000e+00
    629.000     6.4903   3.455095    34.3944    27.0184  0.000e+00
    630.000     6.4881   3.454008    34.3841    27.0106  0.000e+00
    631.000     6.4610   3.452576    34.3949    27.0226  0.000e+00
    632.000     6.4584   3.451834    34.3888    27.0182  0.000e+00
    633.000     6.4558   3.451680    34.3892    27.0189  0.000e+00
    634.000     6.4584   3.452146    34.3913    27.0202  0.000e+00
    635.000     6.4512   3.451315    34.3888    27.0192  0.000e+00
    636.000     6.4212   3.451179    34.4168    27.0453  0.000e+00
    637.000     6.4238   3.451017    34.4120    27.0411  0.000e+00
    638.000     6.4201   3.448139    34.3833    27.0189  0.000e+00
    639.000     6.3761   3.445880    34.4018    27.0393  0.000e+00
    640.000     6.3739   3.442995    34.3715    27.0156  0.000e+00
    641.000     6.2598   3.437315    34.4223    27.0705  0.000e+00
    642.000     6.1860   3.428071    34.3930    27.0568  0.000e+00
    643.000     6.1908   3.421847    34.3182    26.9972  0.000e+00
    644.000     6.0702   3.412007    34.3290    27.0209  0.000e+00
    645.000     5.9839   3.411277    34.4073    27.0937  0.000e+00
    646.000     5.9862   3.410150    34.3918    27.0812  0.000e+00
    647.000     5.9789   3.410113    34.3983    27.0872  0.000e+00
    648.000     5.9793   3.410052    34.3967    27.0859  0.000e+00
    649.000     5.9802   3.410094    34.3958    27.0851  0.000e+00
    650.000     5.9788   3.410056    34.3963    27.0857  0.000e+00
    651.000     5.9825   3.410721    34.3995    27.0878  0.000e+00
    652.000     5.9875   3.410789    34.3948    27.0834  0.000e+00
    653.000     5.9811   3.410051    34.3924    27.0824  0.000e+00
    654.000     5.9730   3.409551    34.3945    27.0851  0.000e+00
    655.000     5.9043   3.402856    34.3882    27.0887  0.000e+00
    656.000     5.9091   3.405091    34.4080    27.1037  0.000e+00
    657.000     5.8749   3.400477    34.3902    27.0939  0.000e+00
    658.000     5.8675   3.399903    34.3907    27.0953  0.000e+00
    659.000     5.8645   3.399795    34.3921    27.0967  0.000e+00
    660.000     5.8593   3.399978    34.3989    27.1027  0.000e+00
    661.000     5.8547   3.399548    34.3982    27.1028  0.000e+00
    662.000     5.8521   3.399390    34.3986    27.1034  0.000e+00
    663.000     5.8545   3.399712    34.3993    27.1037  0.000e+00
    664.000     5.8538   3.399662    34.3989    27.1035  0.000e+00
    665.000     5.8548   3.399688    34.3977    27.1024  0.000e+00
    666.000     5.8516   3.399664    34.4002    27.1048  0.000e+00
    667.000     5.8502   3.399768    34.4023    27.1066  0.000e+00
    668.000     5.8486   3.399775    34.4035    27.1078  0.000e+00
    669.000     5.8460   3.399277    34.4000    27.1054  0.000e+00
    670.000     5.8491   3.399736    34.4016    27.1063  0.000e+00
    671.000     5.8441   3.399446    34.4029    27.1079  0.000e+00
    672.000     5.8434   3.398803    34.3959    27.1025  0.000e+00
    673.000     5.8358   3.398365    34.3981    27.1052  0.000e+00
    674.000     5.8193   3.397360    34.4030    27.1111  0.000e+00
    675.000     5.8189   3.397310    34.4024    27.1107  0.000e+00
    676.000     5.8155   3.397344    34.4057    27.1137  0.000e+00
    677.000     5.8369   3.398596    34.3977    27.1047  0.000e+00
    678.000     5.8207   3.397490    34.4011    27.1095  0.000e+00
    679.000     5.8275   3.397756    34.3967    27.1052  0.000e+00
    680.000     5.8280   3.398158    34.4003    27.1079  0.000e+00
    681.000     5.8230   3.397445    34.3968    27.1058  0.000e+00
    682.000     5.8194   3.397594    34.4016    27.1101  0.000e+00
    683.000     5.8219   3.397611    34.3988    27.1076  0.000e+00
    684.000     5.8181   3.397352    34.3993    27.1084  0.000e+00
    685.000     5.8099   3.396150    34.3935    27.1049  0.000e+00
    686.000     5.7883   3.394485    34.3961    27.1096  0.000e+00
    687.000     5.7819   3.394143    34.3983    27.1121  0.000e+00
    688.000     5.7770   3.394094    34.4022    27.1158  0.000e+00
    689.000     5.7861   3.394905    34.4016    27.1143  0.000e+00
    690.000     5.7881   3.395024    34.4004    27.1131  0.000e+00
    691.000     5.7875   3.394922    34.3994    27.1124  0.000e+00
    692.000     5.7857   3.394630    34.3975    27.1110  0.000e+00
    693.000     5.7846   3.394715    34.3990    27.1124  0.000e+00
    694.000     5.7833   3.394633    34.3989    27.1125  0.000e+00
    695.000     5.7823   3.394714    34.4004    27.1138  0.000e+00
    696.000     5.7797   3.394475    34.3998    27.1137  0.000e+00
    697.000     5.7798   3.394614    34.4008    27.1145  0.000e+00
    698.000     5.7939   3.395811    34.3995    27.1118  0.000e+00
    699.000     5.7914   3.395648    34.3997    27.1122  0.000e+00
    700.000     5.7909   3.395673    34.4000    27.1125  0.000e+00
    701.000     5.7935   3.395938    34.3999    27.1121  0.000e+00
    702.000     5.7961   3.396133    34.3990    27.1111  0.000e+00
    703.000     5.7903   3.395742    34.3999    27.1126  0.000e+00
    704.000     5.7903   3.395746    34.3995    27.1122  0.000e+00
    705.000     5.7810   3.394779    34.3975    27.1118  0.000e+00
    706.000     5.7767   3.394986    34.4037    27.1173  0.000e+00
    707.000     5.7814   3.395066    34.3994    27.1133  0.000e+00
    708.000     5.7794   3.395044    34.4007    27.1145  0.000e+00
    709.000     5.7804   3.395292    34.4020    27.1155  0.000e+00
    710.000     5.7687   3.393705    34.3954    27.1117  0.000e+00
    711.000     5.7573   3.393153    34.4003    27.1170  0.000e+00
    712.000     5.7603   3.393361    34.3991    27.1157  0.000e+00
    713.000     5.7544   3.393037    34.4009    27.1179  0.000e+00
    714.000     5.7653   3.394793    34.4092    27.1231  0.000e+00
    715.000     5.7756   3.394252    34.3922    27.1084  0.000e+00
    716.000     5.7450   3.392326    34.4009    27.1191  0.000e+00
    717.000     5.7537   3.392842    34.3975    27.1153  0.000e+00
    718.000     5.7556   3.393204    34.3991    27.1164  0.000e+00
    719.000     5.7521   3.392938    34.3992    27.1168  0.000e+00
    720.000     5.7496   3.392522    34.3965    27.1151  0.000e+00
    721.000     5.7148   3.389532    34.3975    27.1201  0.000e+00
    722.000     5.7178   3.389959    34.3988    27.1208  0.000e+00
    723.000     5.7296   3.391470    34.4034    27.1230  0.000e+00
    724.000     5.7225   3.390622    34.4006    27.1216  0.000e+00
    725.000     5.7534   3.392805    34.3934    27.1122  0.000e+00
